Data from Subt4__2__02.txt Node

Date: Fri Jun 07 14:39:00 CEST 2024
User: Naturwissenschaft
Spectrometer: FLMS00572
Trigger mode: 0
Integration Time (sec): 5,000000E-2
Scans to average: 20
Electric dark correction enabled: true
Nonlinearity correction enabled: false
Boxcar width: 5
XAxis mode: Wavelengths
Number of Pixels in Spectrum: 2048
>>>>>Begin Spectral Data<<<<<
190,164	0,39
190,544	2,13
190,925	1,87
191,306	2,06
191,687	2,61
192,067	1,47
192,448	2,36
192,829	1,89
193,209	0,56
193,59	1,54
193,97	1,33
194,351	1,5
194,731	1,18
195,112	-0,07
195,492	-1,55
195,872	-2,42
196,253	-0,92
196,633	-0,47
197,013	1,22
197,393	3,04
197,773	2,29
198,154	2,11
198,534	4,02
198,914	2,89
199,294	2,72
199,674	2,47
200,054	3,11
200,434	4,13
200,814	2,48
201,194	-0,66
201,573	-3,6
201,953	-4,27
202,333	-5,59
202,713	-9,61
203,092	-10,28
203,472	-9,86
203,852	-6,51
204,231	-6,62
204,611	-8,05
204,99	-6,4
205,37	-5,65
205,749	-2,71
206,129	-0,78
206,508	0,96
206,887	3,71
207,267	3,31
207,646	6,58
208,025	5,63
208,405	3,99
208,784	3,33
209,163	3,14
209,542	6,91
209,921	5,57
210,3	7,08
210,679	6,41
211,058	7,07
211,437	10,41
211,816	10,42
212,195	9,43
212,574	10,86
212,952	10,72
213,331	9,88
213,71	7,06
214,089	9,13
214,467	6,51
214,846	6,07
215,225	5,03
215,603	2,49
215,982	-0,42
216,36	-0,53
216,739	0,42
217,117	1,51
217,495	0,7
217,874	-0,52
218,252	-2,33
218,63	-1,49
219,009	-1,24
219,387	-3,34
219,765	-2,28
220,143	-2,61
220,521	-2,48
220,899	-5
221,277	-4,27
221,655	-3,5
222,033	-4,1
222,411	-1,73
222,789	-3,09
223,167	-2,31
223,545	-1,2
223,923	0,75
224,301	0,8
224,678	1,36
225,056	1,34
225,434	0,49
225,811	1,47
226,189	3,36
226,566	0,04
226,944	3,12
227,321	3,1
227,699	2,52
228,076	1,37
228,454	3,17
228,831	2,91
229,208	5,06
229,586	2,13
229,963	0,85
230,34	2,07
230,717	5,04
231,094	1,71
231,471	1,78
231,848	2,53
232,225	0,61
232,602	0,35
232,979	-0
233,356	-0,27
233,733	2,56
234,11	2,14
234,487	2,5
234,864	1,95
235,24	3,65
235,617	2,47
235,994	3,34
236,37	4,23
236,747	4,99
237,124	5,63
237,5	5,58
237,877	4,93
238,253	6,16
238,63	6,05
239,006	6,99
239,382	9
239,759	10,39
240,135	8,02
240,511	8,59
240,887	5,87
241,264	4,87
241,64	4,45
242,016	4,83
242,392	3,97
242,768	3,07
243,144	0,96
243,52	-1,67
243,896	-0,83
244,272	2,42
244,648	3,63
245,023	4,86
245,399	5,84
245,775	5,73
246,151	7,26
246,526	8,73
246,902	6,25
247,278	4,51
247,653	4
248,029	4,44
248,404	3,12
248,78	2,15
249,155	0,83
249,53	0,58
249,906	2,5
250,281	2,91
250,656	3
251,032	5,57
251,407	8,13
251,782	9,01
252,157	7,06
252,532	8,24
252,907	8,23
253,282	8,42
253,657	8,34
254,032	6,78
254,407	3,34
254,782	2,51
255,157	1,24
255,532	1,33
255,907	2,5
256,281	4,45
256,656	3,48
257,031	3,46
257,405	2,88
257,78	3,7
258,155	3,66
258,529	5,2
258,904	5,08
259,278	5,56
259,652	4,31
260,027	4,57
260,401	3,18
260,775	4,54
261,15	4,68
261,524	6,57
261,898	6,25
262,272	6,45
262,646	5,57
263,021	5,45
263,395	6,51
263,769	7,65
264,143	7,53
264,517	5,66
264,89	2,81
265,264	0,58
265,638	1,35
266,012	0,55
266,386	-0,07
266,76	-0,66
267,133	-2,22
267,507	-3,56
267,88	-3,85
268,254	-5,3
268,628	-4,27
269,001	-3,04
269,375	-1,31
269,748	-0,57
270,121	-0,28
270,495	0,83
270,868	2,24
271,241	3,56
271,615	5,02
271,988	4,88
272,361	3,78
272,734	3,1
273,107	4,95
273,48	5,18
273,853	2,95
274,226	4,09
274,599	3,45
274,972	5,16
275,345	7,05
275,718	5,62
276,091	5
276,464	8,41
276,836	8,35
277,209	8,67
277,582	7,83
277,954	9,7
278,327	7,45
278,7	8,25
279,072	6,59
279,445	5,2
279,817	6,94
280,189	7,41
280,562	6,73
280,934	6,24
281,306	4,08
281,679	4,57
282,051	4,29
282,423	4,98
282,795	4,44
283,167	6,09
283,539	6,39
283,911	3,85
284,283	2,73
284,655	3,9
285,027	5,52
285,399	7,41
285,771	8,83
286,143	9,41
286,515	10,15
286,886	10,5
287,258	9,15
287,63	9,04
288,001	8,61
288,373	9,31
288,745	4,94
289,116	5,02
289,488	3,02
289,859	0,36
290,23	-1,85
290,602	-3,16
290,973	-5,76
291,344	-4,6
291,716	-6,05
292,087	-3,69
292,458	-3,73
292,829	-1,79
293,2	-3,01
293,571	-3,82
293,942	-5,33
294,313	-2,41
294,684	-0,82
295,055	1,49
295,426	2,13
295,797	4,36
296,168	3,98
296,539	5,45
296,909	6,66
297,28	8,45
297,651	8,47
298,021	10,22
298,392	8,07
298,763	6,57
299,133	6,76
299,503	3,55
299,874	1,3
300,244	1,19
300,615	1,04
300,985	-0,95
301,355	-1,66
301,726	-0,6
302,096	-0,48
302,466	1,85
302,836	4,03
303,206	2,95
303,576	3,1
303,946	4,85
304,316	5,05
304,686	4,18
305,056	2,78
305,426	2,41
305,796	3,35
306,166	4,07
306,535	-0,84
306,905	-3,76
307,275	-4,35
307,644	-2,61
308,014	-4,73
308,383	-5,66
308,753	-6,08
309,122	-2,87
309,492	-2,14
309,861	-1,71
310,231	-1,56
310,6	1,1
310,969	2,67
311,339	3,29
311,708	3,18
312,077	4,14
312,446	4,56
312,815	5,27
313,184	3,04
313,553	4
313,922	4,24
314,291	4,46
314,66	7,16
315,029	5,93
315,398	6,56
315,767	5,58
316,136	3,79
316,504	4,68
316,873	6,23
317,242	6,84
317,61	4,82
317,979	3,66
318,347	3,12
318,716	0,97
319,084	2,21
319,453	3,26
319,821	4,82
320,189	7,12
320,558	7,22
320,926	4,64
321,294	4,43
321,662	4,6
322,031	4,66
322,399	4,95
322,767	5,8
323,135	7,33
323,503	5,82
323,871	5,5
324,239	6,15
324,607	5,23
324,974	7,09
325,342	8,58
325,71	9,75
326,078	10,36
326,445	11,17
326,813	9,83
327,181	7,05
327,548	8,19
327,916	5,92
328,283	3,43
328,651	4,38
329,018	2,25
329,385	2,47
329,753	2,58
330,12	-0,93
330,487	-1,8
330,855	-2,93
331,222	-3,82
331,589	-6,37
331,956	-4,1
332,323	-5,13
332,69	-6,47
333,057	-3,87
333,424	-4,92
333,791	-3,67
334,158	-3,67
334,525	-4,85
334,892	-5,38
335,258	-5,52
335,625	-2,65
335,992	-4,99
336,358	-2,28
336,725	-2,39
337,091	-3,92
337,458	-3,02
337,824	-3,74
338,191	-2,54
338,557	-2,02
338,924	-0,57
339,29	0,81
339,656	-0,47
340,023	0,04
340,389	-0,9
340,755	0,58
341,121	-0,13
341,487	-1,87
341,853	-2,54
342,219	-1,53
342,585	-0,04
342,951	0,47
343,317	2,03
343,683	1,84
344,049	2,5
344,415	2,91
344,78	1,17
345,146	4,53
345,512	4,22
345,877	2,96
346,243	2,43
346,608	2,42
346,974	2,47
347,339	3,53
347,705	3,23
348,07	2,24
348,436	5,92
348,801	5,15
349,166	2,46
349,531	5,29
349,897	6,76
350,262	8,72
350,627	6,68
350,992	6,54
351,357	7,23
351,722	5,09
352,087	6,35
352,452	3,37
352,817	3,16
353,181	3,53
353,546	0,4
353,911	-2,29
354,276	-5,3
354,64	-3,46
355,005	-3,28
355,37	-7,43
355,734	-4,45
356,099	-3,79
356,463	-5,2
356,828	-3,58
357,192	-4,95
357,556	-4,78
357,921	-2,21
358,285	-1,15
358,649	-1,59
359,013	-0,82
359,378	0,29
359,742	0,08
360,106	0,25
360,47	2,49
360,834	1,07
361,198	1,94
361,562	3,85
361,926	2,93
362,289	3,09
362,653	3,39
363,017	1,94
363,381	1,33
363,744	0,88
364,108	0,9
364,472	-1,48
364,835	-1,98
365,199	-0,28
365,562	-1,33
365,926	-3,2
366,289	-3,38
366,652	-4,72
367,016	-2,45
367,379	-0,24
367,742	0,35
368,105	0,34
368,469	1,97
368,832	4,66
369,195	3,27
369,558	3,6
369,921	6,78
370,284	6,75
370,647	7,62
371,01	5,53
371,372	3,91
371,735	3,84
372,098	3,72
372,461	2,01
372,823	2,59
373,186	2,81
373,549	1,76
373,911	1,35
374,274	1,93
374,636	0,58
374,999	0,75
375,361	1
375,723	2,43
376,086	3,25
376,448	3,72
376,81	1,95
377,172	1,21
377,535	2,97
377,897	1,08
378,259	1,71
378,621	2,25
378,983	0,45
379,345	2,72
379,707	1,42
380,068	0,66
380,43	1,96
380,792	3,29
381,154	3,82
381,516	2,54
381,877	5,07
382,239	5,42
382,6	6,67
382,962	9,96
383,323	9,2
383,685	9,57
384,046	8,79
384,408	8,37
384,769	8,27
385,13	9,41
385,492	9,11
385,853	6,91
386,214	7,31
386,575	7,08
386,936	3,76
387,297	3,57
387,658	2,9
388,019	5,77
388,38	7,22
388,741	6,64
389,102	5,94
389,463	5,88
389,823	6,58
390,184	4,66
390,545	5,09
390,906	5,9
391,266	6,02
391,627	6,87
391,987	4,67
392,348	3,69
392,708	3,79
393,069	3,79
393,429	2,92
393,789	3,16
394,15	3,86
394,51	5,12
394,87	6,66
395,23	3,91
395,59	2,96
395,95	0,97
396,31	-0,61
396,67	0,58
397,03	1,56
397,39	4,7
397,75	4,04
398,11	2,05
398,47	-1,23
398,829	-1,81
399,189	-1,96
399,549	-1,32
399,908	1,18
400,268	2,79
400,627	1,33
400,987	-1,7
401,346	-6,07
401,706	-3,61
402,065	-1,79
402,424	-1,52
402,784	-0,39
403,143	-0,39
403,502	1,24
403,861	0,86
404,221	-0,36
404,58	-0,84
404,939	0,68
405,298	5,15
405,657	3,46
406,015	1,67
406,374	2,15
406,733	1,07
407,092	0,91
407,451	-0,89
407,809	-3,33
408,168	-4,13
408,527	-2,7
408,885	-2,77
409,244	-3,77
409,602	-3,31
409,961	-1,15
410,319	-1,93
410,678	-0,82
411,036	1,11
411,394	1,69
411,752	0,8
412,111	3,63
412,469	2,28
412,827	2,78
413,185	2,57
413,543	1,63
413,901	1,17
414,259	2,95
414,617	3,56
414,975	2,5
415,333	0,93
415,69	2,05
416,048	-0,28
416,406	0,57
416,763	0,42
417,121	0,23
417,479	2,16
417,836	2,08
418,194	1,47
418,551	-0,91
418,909	-0,81
419,266	2,13
419,623	3,78
419,981	4,19
420,338	3,58
420,695	3,38
421,052	3,53
421,409	3,21
421,766	3,26
422,123	0,45
422,48	2,19
422,837	2,92
423,194	0,58
423,551	-1,96
423,908	-3,34
424,265	-1,98
424,621	-2,61
424,978	-2,08
425,335	-2,7
425,691	-3,26
426,048	0,4
426,404	0,15
426,761	1,12
427,117	0,47
427,474	2,54
427,83	2,39
428,186	0,88
428,543	2,22
428,899	1,19
429,255	-0,09
429,611	2,13
429,967	3,16
430,323	2,97
430,679	1,09
431,035	1,67
431,391	1,45
431,747	4,91
432,103	7,52
432,459	8,66
432,815	10,98
433,17	10,82
433,526	8,46
433,882	5,24
434,237	5,58
434,593	7,8
434,948	7,87
435,304	8,72
435,659	8,1
436,014	4,18
436,37	3,96
436,725	0,8
437,08	1,43
437,436	3,34
437,791	3,54
438,146	1,47
438,501	-0,31
438,856	-0,83
439,211	-0,84
439,566	-3,87
439,921	-1,26
440,276	-3,3
440,63	-2,71
440,985	-3,1
441,34	-3,64
441,695	-1,82
442,049	0,01
442,404	-0,73
442,758	-1,96
443,113	-1,23
443,467	1,74
443,822	-0,77
444,176	-1,61
444,531	-1,11
444,885	-2,91
445,239	-2,65
445,593	-4,97
445,948	-5,21
446,302	-3,3
446,656	0,17
447,01	1,25
447,364	0,88
447,718	1,71
448,072	1,53
448,426	3,91
448,779	5,46
449,133	3,16
449,487	3,46
449,841	3,7
450,194	2,18
450,548	1,01
450,902	-1,37
451,255	-0,82
451,609	0,99
451,962	2,74
452,315	1,89
452,669	2,64
453,022	6,11
453,375	5,69
453,729	3,67
454,082	4,22
454,435	3,99
454,788	5,03
455,141	2,5
455,494	4,27
455,847	3,71
456,2	3,89
456,553	3,2
456,906	1,47
457,258	3,96
457,611	5,37
457,964	6,1
458,316	6,53
458,669	7,08
459,022	8,49
459,374	3,15
459,727	4,66
460,079	1,36
460,432	2,14
460,784	1,86
461,136	0,68
461,488	-0,32
461,841	-2,91
462,193	-2,21
462,545	-3,04
462,897	-1,09
463,249	2,43
463,601	1,15
463,953	3,13
464,305	3,69
464,657	2,85
465,009	3,2
465,361	3,43
465,712	5,17
466,064	4,8
466,416	4,04
466,767	1,29
467,119	0,88
467,47	0,8
467,822	0,19
468,173	-1,17
468,525	1,36
468,876	1,23
469,227	2,1
469,579	3,5
469,93	2,38
470,281	0,24
470,632	1,53
470,983	-0,39
471,334	-0,71
471,685	-0,56
472,036	0,35
472,387	-0,6
472,738	-1,26
473,089	-3,62
473,44	-6,43
473,79	-6,46
474,141	-4,99
474,492	-5,21
474,842	-3,39
475,193	-2,98
475,543	-2,33
475,894	-3,31
476,244	-2,27
476,595	-2,03
476,945	0,29
477,295	2,93
477,645	0,66
477,996	3,96
478,346	2,39
478,696	2,46
479,046	1,78
479,396	2,19
479,746	3,74
480,096	0,94
480,446	1,28
480,796	1,89
481,145	2,89
481,495	4,4
481,845	2,84
482,195	2,47
482,544	1,1
482,894	3,99
483,243	-0,3
483,593	-1,49
483,942	-0,85
484,292	-1,65
484,641	-3,94
484,99	-7,32
485,34	-5,96
485,689	-8,1
486,038	-5,93
486,387	-5,16
486,736	-8,91
487,085	-5,23
487,434	-2,63
487,783	-3,2
488,132	-0,9
488,481	1,95
488,83	2,91
489,179	3,96
489,527	7,43
489,876	8,18
490,225	8,9
490,573	10,28
490,922	9,67
491,27	8,9
491,619	9,85
491,967	9,66
492,316	9
492,664	10,1
493,012	9,76
493,361	5,92
493,709	3,68
494,057	2,41
494,405	3,98
494,753	5,13
495,101	2,19
495,449	1,09
495,797	0,34
496,145	-0,28
496,493	-1,73
496,84	-3,01
497,188	-2
497,536	-0,05
497,884	1,06
498,231	-0,51
498,579	-0,41
498,926	1,81
499,274	2,21
499,621	0,56
499,969	-0,66
500,316	4,13
500,663	4,44
501,01	4,42
501,358	4,81
501,705	4,81
502,052	4,17
502,399	3,43
502,746	2,42
503,093	1,06
503,44	2,75
503,787	2,16
504,134	0,12
504,481	-1,41
504,827	-1,15
505,174	-1,7
505,521	-2,32
505,867	-4,03
506,214	-2,69
506,56	-0,49
506,907	-0,63
507,253	0,11
507,6	1,53
507,946	-1,61
508,292	-3,36
508,639	-2,39
508,985	-1,54
509,331	-0,68
509,677	2,79
510,023	1,33
510,369	0,26
510,715	2,86
511,061	1,18
511,407	1,3
511,753	1,82
512,099	4,38
512,444	5,23
512,79	4,95
513,136	4,2
513,481	2,74
513,827	2,85
514,172	4,54
514,518	3,88
514,863	5,72
515,209	4,07
515,554	4,13
515,899	4,76
516,245	3,56
516,59	1,37
516,935	2,41
517,28	3,23
517,625	4,3
517,97	3,63
518,315	2,74
518,66	1,45
519,005	4,59
519,35	6,03
519,695	5,51
520,039	5,34
520,384	6,11
520,729	3,99
521,073	4,62
521,418	5,23
521,762	2,88
522,107	3,07
522,451	2,56
522,796	0,62
523,14	-0,15
523,484	0,98
523,829	0,11
524,173	0,92
524,517	3,56
524,861	3,48
525,205	0,43
525,549	2,16
525,893	3,88
526,237	3,61
526,581	3,74
526,925	5,23
527,269	4,5
527,612	3,44
527,956	2,43
528,3	1,06
528,643	-0,81
528,987	-0,45
529,33	-1,36
529,674	-2,83
530,017	-0,86
530,36	0,26
530,704	-2,01
531,047	-2,16
531,39	0,78
531,733	3,67
532,077	1,45
532,42	1,96
532,763	0,74
533,106	-0,96
533,449	-0,51
533,792	-0,63
534,134	-1,89
534,477	-1,26
534,82	-0,11
535,163	-1,52
535,505	-4,6
535,848	-1,88
536,191	-1,85
536,533	-0,32
536,876	0,76
537,218	-0,5
537,56	-0,71
537,903	-0,02
538,245	0,55
538,587	-1,18
538,93	-1,49
539,272	-0,3
539,614	-0,85
539,956	-1,14
540,298	-1,75
540,64	-3,59
540,982	-1,79
541,324	-2,54
541,666	-3,23
542,007	-4,22
542,349	-3,55
542,691	-3,03
543,032	-4,3
543,374	-4,88
543,716	-3,76
544,057	-1,06
544,398	3,96
544,74	4,39
545,081	3,58
545,423	2,27
545,764	0,85
546,105	1,68
546,446	1,14
546,787	-0,52
547,128	-0,07
547,469	0,35
547,81	-1,71
548,151	-4,28
548,492	-5,29
548,833	-4,9
549,174	-1,05
549,515	0,59
549,855	0,69
550,196	2,16
550,537	2,77
550,877	3,05
551,218	2,09
551,558	2,46
551,899	3,78
552,239	4,63
552,579	5,06
552,92	4,31
553,26	4,86
553,6	3,59
553,94	3,46
554,28	5,34
554,62	4,38
554,96	4,89
555,3	5,87
555,64	4,19
555,98	3,58
556,32	1,29
556,66	0,21
556,999	0,43
557,339	0,45
557,679	-0,04
558,018	-0,9
558,358	-1,92
558,697	-4,44
559,037	-5,45
559,376	-6,93
559,715	-6,23
560,055	-4,15
560,394	-5,19
560,733	-4,94
561,072	-5,11
561,411	-6,04
561,75	-6,57
562,089	-3,9
562,428	-2,65
562,767	-0,8
563,106	0,29
563,445	-0,88
563,784	-1,52
564,122	-2,4
564,461	-4,02
564,8	-4,73
565,138	-2,87
565,477	-2,74
565,815	-3,21
566,154	-3,44
566,492	-5,82
566,83	-5,9
567,169	-6,47
567,507	-4,9
567,845	-3,62
568,183	-2,77
568,521	-1,93
568,859	-2,62
569,197	-1,57
569,535	-0,49
569,873	0,47
570,211	1,9
570,549	1,69
570,887	2,37
571,224	0,8
571,562	2,03
571,9	2,39
572,237	1,64
572,575	0,38
572,912	1,23
573,25	-1,1
573,587	-0,63
573,924	-2,22
574,262	-1,49
574,599	-0,96
574,936	0,96
575,273	-0,22
575,61	0,74
575,947	2,65
576,284	1,86
576,621	0,76
576,958	2,13
577,295	1,19
577,632	1,95
577,969	1,54
578,305	1,43
578,642	-0,47
578,979	-0,82
579,315	-2,21
579,652	-3,29
579,988	-2,31
580,325	-3,48
580,661	-2,65
580,997	-3,18
581,334	-5,31
581,67	-5,43
582,006	-5,83
582,342	-4,84
582,678	-5,95
583,014	-5,68
583,35	-5,08
583,686	-3,9
584,022	-2,34
584,358	-3,12
584,694	-1,6
585,029	-0,03
585,365	0,6
585,701	0,66
586,036	-0,54
586,372	2,29
586,707	2,27
587,043	0,59
587,378	-0,35
587,714	-2,27
588,049	-2,01
588,384	-1,87
588,719	-1,02
589,054	-1,81
589,39	-2,14
589,725	-1,03
590,06	-0,81
590,395	0,5
590,729	3,24
591,064	4,25
591,399	5,73
591,734	4,61
592,069	4,45
592,403	6,84
592,738	8,94
593,073	10,25
593,407	11,81
593,742	11,02
594,076	10,74
594,41	7,95
594,745	7,6
595,079	6,83
595,413	5,98
595,747	5,78
596,081	4,62
596,416	1,76
596,75	1,53
597,084	-1,98
597,418	-4,03
597,751	-5,52
598,085	-5,07
598,419	-5,11
598,753	-4,66
599,086	-4,68
599,42	-5,85
599,754	-7,31
600,087	-5,84
600,421	-6,19
600,754	-6,81
601,088	-5,45
601,421	-2,88
601,754	-2,34
602,088	-2,85
602,421	-2,4
602,754	0,29
603,087	1,15
603,42	0,81
603,753	0,46
604,086	1,75
604,419	2,22
604,752	3,01
605,085	0,58
605,417	-0,64
605,75	-2,21
606,083	-2,03
606,415	-4,58
606,748	-4,49
607,08	-2,94
607,413	-2,99
607,745	-3,37
608,078	-0,3
608,41	-1,27
608,742	-0,47
609,074	3,6
609,407	6,55
609,739	5,47
610,071	5,28
610,403	6,07
610,735	5,55
611,067	8,02
611,399	6,39
611,73	5,27
612,062	4,02
612,394	3,04
612,726	0,13
613,057	1,22
613,389	1,04
613,72	4,51
614,052	3,89
614,383	4,52
614,715	0,02
615,046	-2,1
615,377	-2,73
615,708	-3,18
616,04	-0,61
616,371	0,19
616,702	-1,78
617,033	-0,71
617,364	-3,2
617,695	-4,05
618,026	-5,99
618,356	-2,87
618,687	3,34
619,018	4,02
619,349	7,17
619,679	5,67
620,01	6,79
620,34	8,45
620,671	9,1
621,001	7,71
621,332	6,06
621,662	7,69
621,992	7,11
622,322	2,74
622,653	1,18
622,983	-0,53
623,313	-1,41
623,643	-1,67
623,973	-3,99
624,303	-2,62
624,633	-0,84
624,962	-0,53
625,292	0,23
625,622	-0,64
625,952	-1,97
626,281	1,63
626,611	3,02
626,94	3,54
627,27	0,91
627,599	0,9
627,929	-3,15
628,258	-4,69
628,587	-2,34
628,916	-3,93
629,246	-1,97
629,575	-0,59
629,904	-3,73
630,233	-3,52
630,562	-2,94
630,891	-1,84
631,22	0,01
631,548	0,11
631,877	-0,21
632,206	-1,58
632,535	-2,54
632,863	-0,93
633,192	1,23
633,52	2,68
633,849	1,63
634,177	-0,19
634,506	0,54
634,834	-0,05
635,162	1,74
635,49	2,71
635,819	2
636,147	3,21
636,475	0,03
636,803	0,54
637,131	-0,22
637,459	-1,54
637,787	-0,28
638,114	-0,86
638,442	-2,34
638,77	-1,24
639,098	0,29
639,425	2,45
639,753	0,55
640,08	-0,63
640,408	-1,93
640,735	1,15
641,062	1,23
641,39	-0,28
641,717	0,19
642,044	-0,22
642,371	0,18
642,699	-0,61
643,026	-1,37
643,353	1,04
643,68	3,34
644,006	0,69
644,333	-2,84
644,66	-2,03
644,987	-1,15
645,314	-0,64
645,64	0,51
645,967	-0,77
646,293	-1,54
646,62	-1,35
646,946	-2,87
647,273	-4,53
647,599	-2,71
647,925	-2,8
648,252	-3,3
648,578	-1,55
648,904	-0,83
649,23	-0,95
649,556	-0,84
649,882	-0,99
650,208	0,79
650,534	1,74
650,86	3,46
651,185	3,38
651,511	4,21
651,837	5,06
652,162	7,35
652,488	5,46
652,814	4,29
653,139	3,63
653,464	5,85
653,79	3,98
654,115	2,13
654,44	0,85
654,766	2,3
655,091	3,23
655,416	3,03
655,741	-0,81
656,066	-0,8
656,391	2,43
656,716	3,88
657,041	2,97
657,366	2,69
657,69	5,69
658,015	6,83
658,34	6,94
658,664	6,13
658,989	7,6
659,313	7,43
659,638	9,5
659,962	8,01
660,286	6,81
660,611	5,91
660,935	5,82
661,259	4,19
661,583	3,86
661,907	1,28
662,231	0,39
662,555	0,59
662,879	0,19
663,203	-1,69
663,527	-1,26
663,851	0,91
664,175	0,04
664,498	0,18
664,822	0,28
665,145	-0,04
665,469	2,01
665,792	4,45
666,116	4,32
666,439	5,17
666,763	4,2
667,086	4,88
667,409	3,61
667,732	5,46
668,055	7,39
668,378	8,36
668,701	8,91
669,024	8,82
669,347	8,09
669,67	6,81
669,993	7,15
670,316	8,17
670,638	7,08
670,961	6,05
671,283	6,54
671,606	4,66
671,928	2,32
672,251	0,25
672,573	-0,84
672,896	-1,75
673,218	-1,34
673,54	-0,4
673,862	-0,35
674,184	0,4
674,506	-0,43
674,828	-0,51
675,15	-0,24
675,472	1,3
675,794	2,54
676,116	2,62
676,438	1,43
676,759	3,59
677,081	2,6
677,403	3,69
677,724	1,39
678,046	1,35
678,367	-0,14
678,689	-0,79
679,01	-0,91
679,331	-1,57
679,652	-0,52
679,974	-0,52
680,295	-3,89
680,616	-4,95
680,937	-4,08
681,258	-2,41
681,579	0,91
681,9	2,3
682,22	2,67
682,541	2,88
682,862	3,91
683,183	3,89
683,503	1,83
683,824	2,77
684,144	5,82
684,465	5,26
684,785	3,84
685,105	0,58
685,426	-0,21
685,746	2,28
686,066	3,07
686,386	1,96
686,706	1,96
687,026	6,71
687,346	9,06
687,666	6,76
687,986	7,56
688,306	10,54
688,626	12,85
688,945	12,79
689,265	10,41
689,585	9,48
689,904	9,37
690,224	11,59
690,543	11,72
690,862	8,49
691,182	6,6
691,501	6,87
691,82	3,82
692,139	0,58
692,459	0,68
692,778	3,21
693,097	2,33
693,416	4,38
693,735	2,85
694,053	-0,11
694,372	2,49
694,691	5,81
695,01	3,74
695,328	4,28
695,647	5,93
695,966	6,46
696,284	3,77
696,602	4,04
696,921	1,83
697,239	0,38
697,557	2,21
697,876	-1,02
698,194	-4,51
698,512	-4,28
698,83	-1,65
699,148	-0,51
699,466	0,34
699,784	1,3
700,102	0,65
700,42	2,81
700,737	2,56
701,055	1,1
701,373	1,57
701,69	5,71
702,008	4,22
702,325	1,54
702,643	0,47
702,96	-1,12
703,277	-2,03
703,595	0,25
703,912	0,77
704,229	-0,54
704,546	1,96
704,863	3,48
705,18	0,43
705,497	1,46
705,814	2,08
706,131	-0,64
706,448	0,05
706,764	3,12
707,081	2,94
707,398	2,8
707,714	4,87
708,031	4,31
708,347	4,03
708,664	4,39
708,98	4,55
709,296	4,44
709,613	7,05
709,929	7,12
710,245	5,34
710,561	3,09
710,877	1,79
711,193	1,49
711,509	0,74
711,825	0,44
712,141	1,94
712,457	1,86
712,772	2,63
713,088	3,36
713,403	2,47
713,719	2,67
714,035	3,69
714,35	4,13
714,665	4,66
714,981	5,64
715,296	5,36
715,611	5,78
715,926	5,91
716,242	6,71
716,557	10,27
716,872	11,5
717,187	9,74
717,502	8,74
717,816	7,02
718,131	6,74
718,446	5,15
718,761	5,99
719,075	5,66
719,39	6,75
719,704	6,41
720,019	2,7
720,333	2,59
720,648	2,77
720,962	2,71
721,276	3,01
721,59	1,51
721,905	2,59
722,219	3,07
722,533	-0,39
722,847	-2,37
723,161	-3,9
723,475	-4,03
723,788	-3,21
724,102	-3,4
724,416	-2,59
724,73	-0,78
725,043	2,62
725,357	2,6
725,67	1,34
725,984	3,92
726,297	5,04
726,61	5,75
726,924	5,84
727,237	3,07
727,55	3,09
727,863	3,25
728,176	3,7
728,489	1,98
728,802	2,94
729,115	4,36
729,428	5,03
729,741	4,38
730,054	4,54
730,366	4,19
730,679	6,67
730,992	9,05
731,304	9,05
731,617	7,6
731,929	6,7
732,241	4,61
732,554	6,09
732,866	3,59
733,178	3,01
733,49	1,74
733,802	2,91
734,114	0,37
734,426	-3,51
734,738	-4,72
735,05	-3,59
735,362	-4,79
735,674	-5,17
735,985	-7,26
736,297	-3,34
736,609	-0,89
736,92	0,37
737,232	0,7
737,543	2,29
737,854	3,98
738,166	2,99
738,477	2,93
738,788	3,69
739,099	3,12
739,411	0,6
739,722	-2,17
740,033	-4,52
740,344	-5,41
740,654	-6,4
740,965	-6,17
741,276	-6,95
741,587	-4,69
741,897	-5,18
742,208	-6,12
742,519	-11,82
742,829	-9,97
743,14	-10,57
743,45	-11,15
743,76	-13,02
744,071	-14,88
744,381	-13,77
744,691	-12,33
745,001	-10,19
745,311	-10,9
745,621	-7,68
745,931	-1,44
746,241	-1,03
746,551	0,58
746,861	1,92
747,17	2,88
747,48	4,32
747,79	2,62
748,099	3,09
748,409	-0,61
748,718	0,75
749,027	-1,44
749,337	-0,8
749,646	-2,54
749,955	-2,17
750,265	-3,83
750,574	-3,74
750,883	-2,39
751,192	-1,66
751,501	-3,59
751,81	-0,3
752,118	-1,09
752,427	-3,37
752,736	-1,05
753,045	1,73
753,353	1,24
753,662	3,02
753,97	1,63
754,279	1,42
754,587	0,35
754,896	3,05
755,204	0,27
755,512	-0,91
755,82	4,63
756,128	3,52
756,436	2,27
756,744	0,19
757,052	2,57
757,36	3,96
757,668	3,11
757,976	4,2
758,284	3,68
758,591	5,1
758,899	4,36
759,207	1,1
759,514	0,88
759,821	-1,16
760,129	0,7
760,436	-2,2
760,744	-1,34
761,051	-3,42
761,358	-5,98
761,665	-7,91
761,972	-7,55
762,279	-6,09
762,586	-6,35
762,893	-7,24
763,2	-4,09
763,507	-1,95
763,813	0,22
764,12	-2,35
764,427	-0
764,733	1,83
765,04	3,49
765,346	4,13
765,653	3,41
765,959	3,44
766,265	2,46
766,571	2,68
766,878	1,28
767,184	-0,32
767,49	3,17
767,796	2
768,102	3,07
768,408	0,97
768,713	-0,2
769,019	1,14
769,325	2,11
769,631	3,7
769,936	1,54
770,242	-0,37
770,547	0,44
770,853	1
771,158	1,43
771,463	0,08
771,769	0,86
772,074	1,77
772,379	2,37
772,684	0,23
772,989	-2,43
773,294	-1,88
773,599	-3,01
773,904	-5,59
774,209	-7,67
774,514	-8,26
774,818	-9,29
775,123	-9,51
775,428	-12,29
775,732	-13,19
776,037	-11,57
776,341	-8,34
776,645	-7,82
776,95	-5,29
777,254	-2,92
777,558	-0,88
777,862	-0,39
778,166	0,75
778,47	1,18
778,774	3,6
779,078	3,58
779,382	5,66
779,686	4,31
779,99	3,82
780,293	2,15
780,597	2,42
780,901	-0,72
781,204	-0,62
781,508	-1,95
781,811	-0,68
782,114	-0,89
782,418	-1,38
782,721	-2,21
783,024	-0,86
783,327	-1,78
783,63	0,62
783,933	-0,07
784,236	1,62
784,539	-0
784,842	0,42
785,145	1,52
785,447	2,93
785,75	1,51
786,053	1,41
786,355	-0,29
786,658	1,08
786,96	1,39
787,263	0,25
787,565	0,3
787,867	2,39
788,169	3,15
788,472	-0,14
788,774	-1,06
789,076	0,01
789,378	0,23
789,68	3,53
789,982	5,05
790,283	4,44
790,585	5,64
790,887	4,96
791,188	5,13
791,49	3,64
791,792	4,27
792,093	4,76
792,394	6,58
792,696	5,69
792,997	1,47
793,298	1,11
793,6	1,03
793,901	0,25
794,202	0,26
794,503	-0,48
794,804	1,77
795,105	5,14
795,405	4,38
795,706	3,71
796,007	5,15
796,308	6,51
796,608	5,92
796,909	2,45
797,209	1,39
797,51	0,79
797,81	0,81
798,11	0,42
798,411	-0,52
798,711	-1,18
799,011	-0,83
799,311	-1,38
799,611	0,17
799,911	-1,79
800,211	-0,05
800,511	0,89
800,811	2,85
801,111	3,56
801,41	2,4
801,71	0,61
802,009	-0,8
802,309	-1,66
802,608	-4,08
802,908	-5,33
803,207	-3,01
803,507	-1,1
803,806	-0,75
804,105	-0,28
804,404	-0,73
804,703	0,57
805,002	1,64
805,301	4,71
805,6	4,13
805,899	4,83
806,198	5,63
806,496	6,25
806,795	4,51
807,094	5,15
807,392	4,09
807,691	5,48
807,989	3,71
808,287	3,91
808,586	4,6
808,884	5,09
809,182	7,53
809,48	7,18
809,778	4,89
810,076	7,45
810,374	5,9
810,672	3,91
810,97	3,14
811,268	5,05
811,566	3,15
811,863	1
812,161	1,93
812,458	-0,02
812,756	-0,95
813,053	-1,15
813,351	-4,8
813,648	-2,23
813,945	-1,5
814,242	-0,6
814,54	-0,36
814,837	-0,25
815,134	0,66
815,431	2,48
815,728	1,65
816,025	3,92
816,321	2,82
816,618	5,44
816,915	2,86
817,211	5,32
817,508	4,29
817,804	3,71
818,101	4,95
818,397	3,11
818,694	-0,08
818,99	0,74
819,286	-0,52
819,582	1,73
819,878	0,17
820,174	2,8
820,47	1,03
820,766	0,91
821,062	0,79
821,358	-0,16
821,654	0,72
821,949	1,84
822,245	1,76
822,541	1,78
822,836	-0,32
823,132	0,1
823,427	-2,74
823,722	-3,88
824,018	-4,95
824,313	-4,56
824,608	-3,93
824,903	-3,77
825,198	-6,29
825,493	-6,12
825,788	-6,88
826,083	-3,01
826,378	-4,03
826,672	-4,6
826,967	-3,1
827,262	-2,55
827,556	-4,04
827,851	-3,23
828,145	-3,92
828,44	-0,92
828,734	0,97
829,028	0,53
829,323	-3,67
829,617	-0,37
829,911	3,61
830,205	3,59
830,499	4,84
830,793	4,46
831,087	4
831,381	3,12
831,674	4,51
831,968	3,95
832,262	4,43
832,555	4,74
832,849	3,29
833,142	0,28
833,436	0,62
833,729	-1,02
834,022	0,38
834,315	0,45
834,609	0,08
834,902	-1,16
835,195	-2,72
835,488	-3,15
835,781	-2,2
836,074	-3,3
836,366	-4,55
836,659	-5,83
836,952	-5,1
837,244	-2,42
837,537	-2,8
837,829	-1,04
838,122	-1,81
838,414	0,38
838,707	2,9
838,999	4,2
839,291	4,8
839,583	5,47
839,875	6,94
840,167	7,75
840,459	3,03
840,751	2,29
841,043	2,6
841,335	2,91
841,627	1,82
841,918	-1,25
842,21	-0,75
842,502	-0,15
842,793	0,62
843,085	-0,9
843,376	-1,43
843,667	2,43
843,959	2,48
844,25	1,98
844,541	1,82
844,832	0,66
845,123	0,82
845,414	0,93
845,705	1,28
845,996	1,86
846,287	3,04
846,577	1,72
846,868	0,01
847,159	-0,39
847,449	1
847,74	1,6
848,03	2,19
848,32	2,3
848,611	-0,75
848,901	-1,33
849,191	-1,2
849,481	-0,3
849,771	2,62
850,061	2,97
850,351	3,79
850,641	3,45
850,931	2,6
851,221	2,74
851,511	2,74
851,8	4,17
852,09	2,36
852,379	2,89
852,669	1,2
852,958	-0,98
853,248	-2,01
853,537	-2,4
853,826	-2,8
854,115	-3,31
854,404	-2,03
854,693	-1,02
854,982	-1,6
855,271	-2,8
855,56	-5,16
855,849	-5,33
856,138	-4,57
856,427	-6,12
856,715	-5,93
857,004	-6,19
857,292	-6,14
857,581	-8,69
857,869	-9,45
858,157	-7,59
858,446	-4,58
858,734	-3,66
859,022	-2,91
859,31	-2,92
859,598	-0,86
859,886	-2,67
860,174	-1,89
860,462	-1,06
860,75	-1,03
861,037	-1,93
861,325	-4,19
861,613	-3,83
861,9	-1,87
862,188	-2,08
862,475	-0,74
862,763	0,38
863,05	1,98
863,337	1,88
863,624	1,78
863,911	1,72
864,199	3,56
864,486	4,23
864,772	4,34
865,059	3,14
865,346	5,32
865,633	5,02
865,92	3,8
866,206	5,96
866,493	5,77
866,779	6,57
867,066	7
867,352	7,3
867,639	10,16
867,925	9,84
868,211	8,25
868,497	6,74
868,783	5,25
869,069	5,56
869,355	3
869,641	2,03
869,927	-1,89
870,213	-0,49
870,499	-2,81
870,784	-6,14
871,07	-6,4
871,356	-3,93
871,641	-4,23
871,926	-3,9
872,212	-4,57
872,497	-4,35
872,782	-2,08
873,068	1,57
873,353	0,7
873,638	1,88
873,923	3,29
874,208	3,89
874,493	2,49
874,777	2,25
875,062	0,64
875,347	2,29
875,632	2,81
875,916	3,11
876,201	0,8
876,485	2,62
876,77	2,33
877,054	2,63
877,338	2,36
877,622	0,86
877,906	1,51
878,191	3,12
878,475	2,35
878,759	2,48
879,042	-0,16
879,326	1,79
879,61	-0,8
879,894	0,15
